Projektnummer           	19038			
Sondierung              	CPTu_19			
Projektbezeichnung      				
Datum der Sondierung    	17-Sep-2019			
				
   Tiefe	    Conus	  Reibung	 PW-Druck	       Rf
     (m)	    (MPa)	    (MPa)	    (MPa)	      (%)
0	0	0	0	0
0,02	0,9362	0,0001	0,5628	0
0,04	1,8594	0,0001	0,5628	0
0,06	2,4917	0,0072	-0,0001	0,3026
0,08	2,8857	0,0109	-0,0003	0,3695
0,1	3,7107	0,0141	0,0002	0,399
0,12	4,2184	0,0173	0,0001	0,4284
0,14	4,8551	0,02	0,0002	0,4507
0,16	5,2881	0,0226	0,0001	0,4705
0,18	5,5658	0,0252	-0,0001	0,4904
0,2	5,8686	0,0278	-0,0002	0,5102
0,22	6,1829	0,0327	-0,0004	0,5852
0,24	6,6133	0,0393	-0,0008	0,6167
0,26	7,2569	0,0481	-0,0012	0,7526
0,28	7,9006	0,056	-0,0016	0,8762
0,3	8,5442	0,064	-0,0021	1,0023
0,32	9,2757	0,0703	-0,002	0,7771
0,34	10,3384	0,0727	-0,0016	0,7106
0,36	11,2247	0,0812	-0,0009	0,7271
0,38	12,298	0,099	-0,0002	0,81
0,4	13,7919	0,1101	-0,0001	0,8047
0,42	15,7748	0,1186	-0,0002	0,7627
0,44	17,7584	0,13	-0,0002	0,7402
0,46	19,1066	0,1486	-0,0001	0,7854
0,48	20,7522	0,1639	0	0,8018
0,5	21,737	0,1703	0	0,7895
0,52	22,2777	0,1803	0	0,8147
0,54	22,47	0,1859	0	0,827
0,56	22,085	0,1909	0	0,8588
0,58	21,6654	0,1938	-0,0001	0,8892
0,6	20,9585	0,1907	-0,0002	0,9001
0,62	20,0946	0,1872	-0,0002	0,9211
0,64	19,1947	0,1792	0	0,923
0,66	18,1784	0,1676	0,0001	0,9096
0,68	17,1254	0,1559	0,0001	0,8973
0,7	16,1477	0,1463	0,0001	0,8934
0,72	15,7427	0,143	0	0,9058
0,74	15,8437	0,1432	0	0,9089
0,76	15,9076	0,1413	0	0,8868
0,78	15,3742	0,138	-0,0011	0,8809
0,8	14,4409	0,1293	-0,0003	0,8679
0,82	13,5919	0,1191	0	0,8536
0,84	12,9406	0,1116	0	0,8417
0,86	12,1092	0,1092	0	0,8736
0,88	11,23	0,1079	-0,0001	0,9325
0,9	10,48	0,1029	-0,0001	0,9519
0,92	9,839	0,0898	-0,0002	0,8868
0,94	9,2608	0,0754	-0,0003	0,7959
0,96	8,7212	0,067	-0,0003	0,749
0,98	8,1543	0,0627	-0,0002	0,7468
1	7,5893	0,0597	-0,0002	0,7611
1,02	7,0825	0,0557	-0,0002	0,7566
1,04	6,5757	0,0496	-0,0002	0,705
1,06	6,1448	0,0435	-0,0003	0,6535
1,08	5,7643	0,0374	-0,0003	0,6019
1,1	5,449	0,0312	-0,0003	0,5503
1,12	5,2171	0,0304	-0,0004	0,5749
1,14	5,0877	0,0322	-0,0005	0,622
1,16	4,978	0,0332	-0,0005	0,6407
1,18	4,8684	0,0333	-0,0006	0,6428
1,2	4,7587	0,0338	-0,0007	0,6527
1,22	4,6488	0,0344	-0,0007	0,7096
1,24	4,5228	0,0343	-0,0007	0,7506
1,26	4,4066	0,0327	-0,0007	0,7372
1,28	4,3039	0,0308	-0,0008	0,709
1,3	4,2191	0,0297	-0,0008	0,7007
1,32	4,1013	0,0308	-0,0008	0,7432
1,34	3,9195	0,0349	-0,0008	0,8749
1,36	3,7852	0,0421	-0,0008	1,1003
1,38	3,5995	0,0489	-0,0008	1,3334
1,4	3,3909	0,0545	-0,0006	1,572
1,42	3,1731	0,0643	-0,0007	1,9685
1,44	2,8722	0,0711	-0,0007	2,3745
1,46	2,6732	0,0719	-0,0007	2,6294
1,48	2,5523	0,0696	-0,0008	2,6795
1,5	2,6051	0,0666	-0,0006	2,6156
1,52	2,7983	0,0667	-0,0002	2,4536
1,54	2,9324	0,0699	-0,0008	2,4148
1,56	3,1247	0,0742	-0,0026	2,424
1,58	3,1672	0,0829	-0,0035	2,6172
1,6	3,2353	0,094	-0,0082	2,9361
1,62	3,2399	0,1069	-0,0208	3,296
1,64	3,2538	0,1206	-0,0239	3,7138
1,66	3,2432	0,1302	-0,0181	3,9931
1,68	3,1275	0,1337	-0,0116	4,2036
1,7	3,0057	0,1327	-0,0063	4,3301
1,72	2,9076	0,1261	-0,0015	4,2656
1,74	2,7667	0,1171	-0,0007	4,1111
1,76	2,6102	0,1044	-0,0006	3,88
1,78	2,4529	0,0923	-0,0006	3,6437
1,8	2,3212	0,0784	0	3,2868
1,82	2,1952	0,0718	0,0043	3,1866
1,84	2,0986	0,0651	0,0109	3,0387
1,86	2,0321	0,0608	0,012	2,9533
1,88	1,9669	0,0581	0,0132	2,9149
1,9	1,9055	0,058	0,015	3,0064
1,92	1,862	0,056	0,0161	2,9795
1,94	1,8414	0,0548	0,0169	2,9751
1,96	1,8505	0,0565	0,0175	3,0661
1,98	1,8643	0,0557	0,0181	3,0222
2	1,8414	0,0548	0,0183	2,9784
2,02	1,8402	0,054	0,0179	2,9345
2,04	1,8494	0,064	0,0171	3,4679
2,06	1,8533	0,065	0,0166	3,4972
2,08	1,8163	0,0571	0,0148	3,082
2,1	1,7792	0,0579	0,0129	3,1257
2,12	1,7421	0,0686	0,0111	3,7043
2,14	1,6514	0,0597	0,0137	3,517
2,16	1,553	0,0503	0,0162	3,2003
2,18	1,6091	0,0486	0,0176	3,077
2,2	1,9046	0,05	0,0187	2,7695
2,22	2,5177	0,0522	0,0193	2,2558
2,24	3,5087	0,0509	-0,0001	1,5881
2,26	4,4633	0,0462	-0,0429	1,0807
2,28	4,9549	0,0453	-0,0553	0,9312
2,3	5,3321	0,0437	-0,0614	0,8386
2,32	5,7899	0,0442	-0,0618	0,7762
2,34	6,2341	0,0507	-0,0613	0,823
2,36	6,5198	0,0592	-0,0597	0,9141
2,38	6,8036	0,0658	-0,0592	0,9816
2,4	7,4861	0,0701	-0,0594	0,9651
2,42	8,6911	0,0739	-0,0589	0,8921
2,44	10,1108	0,0759	-0,0614	0,7906
2,46	11,0503	0,0793	-0,0677	0,7346
2,48	11,8972	0,0847	-0,0715	0,729
2,5	12,5175	0,0929	-0,0718	0,7505
2,52	12,7016	0,1031	-0,0706	0,8125
2,54	12,6152	0,109	-0,0694	0,862
2,56	12,5852	0,1122	-0,0688	0,8922
2,58	12,6592	0,1161	-0,0682	0,9194
2,6	12,7935	0,1217	-0,0675	0,9544
2,62	12,8867	0,1151	-0,0668	0,8956
2,64	12,846	0,1021	-0,066	0,7917
2,66	12,6583	0,0857	-0,0653	0,6722
2,68	12,3857	0,0704	-0,0646	0,5624
2,7	12,2677	0,0677	-0,0641	0,5477
2,72	11,5169	0,0776	-0,0636	0,6542
2,74	10,1477	0,0842	-0,0631	0,7731
2,76	10,3084	0,0833	-0,0604	0,8191
2,78	8,882	0,0915	-0,0576	1,0022
2,8	8,4773	0,0959	-0,0527	1,0934
2,82	7,2573	0,0872	-0,0515	1,1214
2,84	6,6396	0,0786	-0,051	1,1503
2,86	6,2481	0,0613	-0,0502	0,9571
2,88	5,8114	0,0626	-0,0501	1,0443
2,9	5,4248	0,067	-0,0502	1,1988
2,92	5,0229	0,0656	-0,0506	1,1973
2,94	4,5936	0,0622	-0,0504	1,1205
2,96	4,4355	0,0589	-0,05	1,0436
2,98	4,6616	0,0555	-0,0489	0,9668
3	5,4048	0,0521	-0,0488	0,89
3,02	6,2364	0,0487	-0,0506	0,8132
3,04	6,5843	0,0454	-0,0529	0,7373
3,06	6,9322	0,0414	-0,0553	0,6724
3,08	7,2802	0,0387	-0,0577	0,6293
3,1	7,6281	0,0366	-0,06	0,5956
3,12	7,976	0,0414	-0,0624	0,6725
3,14	8,3239	0,0502	-0,0648	0,8161
3,16	8,5305	0,0595	-0,0645	0,7006
3,18	8,5601	0,0695	-0,0641	0,8117
3,2	8,517	0,075	-0,0637	0,8783
3,22	8,4039	0,0791	-0,0636	0,9383
3,24	8,3329	0,0821	-0,0632	0,984
3,26	8,2801	0,082	-0,0628	0,987
3,28	8,206	0,0816	-0,0625	0,9925
3,3	8,1527	0,0826	-0,0622	1,0114
3,32	7,9657	0,0806	-0,0617	1,0037
3,34	7,7685	0,0797	-0,0614	1,0162
3,36	7,5616	0,0789	-0,0611	1,0335
3,38	7,3018	0,081	-0,0607	1,0938
3,4	6,9408	0,0863	-0,0604	1,2162
3,42	6,3738	0,0847	-0,0601	1,2823
3,44	5,8293	0,079	-0,0596	1,3188
3,46	5,7093	0,0752	-0,059	1,3132
3,48	5,6935	0,0719	-0,058	1,2617
3,5	5,8781	0,0661	-0,0571	1,1457
3,52	6,2574	0,0555	-0,0574	0,9058
3,54	6,7054	0,049	-0,0574	0,7472
3,56	6,9727	0,0563	-0,0577	0,8135
3,58	6,9428	0,0667	-0,059	0,9519
3,6	6,5592	0,08	-0,06	1,1848
3,62	5,9647	0,094	-0,0601	1,5157
3,64	5,3838	0,103	-0,0601	1,8375
3,66	4,8436	0,1012	-0,0599	2,0086
3,68	4,5104	0,088	-0,0596	1,9041
3,7	4,3561	0,0753	-0,0585	1,7146
3,72	4,6827	0,0652	-0,0567	1,4505
3,74	5,5449	0,0608	-0,0564	1,1594
3,76	6,9727	0,057	-0,0572	0,8953
3,78	8,0169	0,0526	-0,0599	0,6823
3,8	8,9963	0,0528	-0,0607	0,6071
3,82	9,8734	0,061	-0,061	0,6312
3,84	10,5298	0,0729	-0,0612	0,6993
3,86	11,0011	0,0799	-0,0611	0,7319
3,88	11,4793	0,0803	-0,061	0,709
3,9	12,3134	0,0837	-0,0609	0,6927
3,92	13,3991	0,0753	-0,0606	0,579
3,94	14,7572	0,0661	-0,0601	0,459
3,96	16,2632	0,0754	-0,0594	0,467
3,98	17,4466	0,0941	-0,0594	0,542
4	18,319	0,1101	-0,0592	0,6147
4,02	18,7216	0,127	-0,0568	0,6806
4,04	18,8395	0,1355	-0,0541	0,7265
4,06	19,1803	0,139	-0,0524	0,7309
4,08	20,2292	0,1445	-0,0515	0,7175
4,1	20,7727	0,154	-0,0507	0,7442
4,12	21,4427	0,1643	-0,05	0,7717
4,14	22,3765	0,1775	-0,0489	0,8006
4,16	23,1803	0,19	-0,0478	0,8246
4,18	23,4431	0,2007	-0,0469	0,8566
4,2	23,371	0,2093	-0,0463	0,8941
4,22	23,035	0,2129	-0,0454	0,9209
4,24	22,5018	0,2138	-0,0448	0,9447
4,26	21,6589	0,2105	-0,0443	0,9623
4,28	20,5562	0,2049	-0,0437	0,9833
4,3	19,4243	0,1975	-0,0432	1,0011
4,32	18,5955	0,1885	-0,0426	1,0003
4,34	17,796	0,1788	-0,0421	0,9894
4,36	16,8921	0,1683	-0,0416	0,9713
4,38	15,7958	0,1575	-0,0413	0,9638
4,4	14,5427	0,1479	-0,0409	0,9743
4,42	13,2348	0,1341	-0,0403	0,968
4,44	12,0221	0,1213	-0,04	0,9604
4,46	10,8749	0,1119	-0,0397	0,9792
4,48	9,7201	0,1069	-0,0394	1,0436
4,5	8,6436	0,1046	-0,0392	1,1468
4,52	7,6597	0,097	-0,0389	1,2067
4,54	7,0522	0,0867	-0,0384	1,195
4,56	6,7122	0,0753	-0,037	1,1021
4,58	6,4574	0,0676	-0,0353	1,0282
4,6	6,2255	0,0677	-0,0415	1,0637
4,62	5,7827	0,0594	-0,0474	0,9987
4,64	5,1373	0,0487	-0,0476	0,9072
4,66	4,4557	0,0429	-0,0469	0,9202
4,68	3,9186	0,0477	-0,0458	1,1839
4,7	3,7389	0,0484	-0,0439	1,2855
4,72	3,8671	0,0458	-0,0484	1,1919
4,74	3,917	0,0425	-0,0549	1,105
4,76	3,9669	0,0438	-0,0648	1,1336
4,78	3,6463	0,0471	-0,0734	1,2387
4,8	3,1579	0,0552	-0,073	1,6443
4,82	2,5784	0,0586	-0,0726	2,1002
4,84	2,1378	0,0547	-0,072	2,4173
4,86	1,7861	0,0473	-0,0703	2,4775
4,88	1,4427	0,0384	-0,0695	2,4657
4,9	1,1563	0,0274	-0,0678	2,1881
4,92	0,975	0,0213	-0,0664	2,0673
4,94	0,8792	0,0172	-0,0651	1,8956
4,96	0,8287	0,0154	-0,0636	1,829
4,98	0,8012	0,0148	-0,0622	1,8203
5	0,7757	0,0142	-0,0609	1,8095
5,02	0,7615	0,0145	-0,0596	1,9045
5,04	0,7614	0,0155	-0,0581	2,0405
5,06	0,7689	0,0166	-0,0564	2,1696
5,08	0,782	0,0176	-0,0548	2,2757
5,1	0,8113	0,0191	-0,0532	2,3981
5,12	0,8482	0,0205	-0,0514	2,4607
5,14	0,8873	0,0214	-0,0496	2,4636
5,16	0,9203	0,0223	-0,0476	2,4569
5,18	0,959	0,0227	-0,0454	2,4195
5,2	1,0034	0,0232	-0,0433	2,3498
5,22	1,0356	0,0234	-0,0407	2,2799
5,24	1,0504	0,0234	-0,0382	2,2387
5,26	1,0512	0,0233	-0,0357	2,2208
5,28	1,0575	0,0222	-0,0327	2,1045
5,3	1,0788	0,0207	-0,0296	1,9348
5,32	1,0908	0,0203	-0,026	1,8679
5,34	1,0914	0,0198	-0,0223	1,8093
5,36	1,0781	0,0193	-0,0182	1,781
5,38	1,0726	0,0187	-0,0137	1,7472
5,4	1,0735	0,0177	-0,0089	1,6515
5,42	1,0677	0,0165	-0,0036	1,5384
5,44	1,0465	0,0153	0,0021	1,4489
5,46	1,0181	0,0143	0,0076	1,3837
5,48	0,9876	0,0137	0,0141	1,3694
5,5	0,9678	0,0132	0,0212	1,3499
5,52	0,9543	0,0131	0,0296	1,359
5,54	0,9492	0,0128	0,0391	1,3477
5,56	0,9633	0,0127	0,0503	1,3289
5,58	0,9797	0,0127	0,0643	1,3012
5,6	0,9871	0,0132	0,0789	1,3408
5,62	0,9967	0,0135	0,0992	1,3701
5,64	0,9988	0,0139	0,1184	1,3973
5,66	1,0037	0,0146	0,1386	1,4613
5,68	1,0019	0,0161	0,1575	1,6082
5,7	0,9896	0,0169	0,179	1,6997
5,72	0,9702	0,0177	0,2204	1,7936
5,74	0,9291	0,0186	0,2696	1,8804
5,76	0,888	0,0184	0,3219	1,9107
5,78	0,9236	0,0195	0,3622	2,1259
5,8	0,9295	0,0209	0,3825	2,2566
5,82	0,9433	0,0219	0,3944	2,3316
5,84	0,9613	0,0222	0,3841	2,3236
5,86	0,9633	0,0232	0,4002	2,4122
5,88	0,9699	0,0244	0,3968	2,5224
5,9	0,9841	0,0248	0,4075	2,5415
5,92	0,9918	0,0249	0,4138	2,5286
5,94	1,0019	0,0251	0,4182	2,5158
5,96	0,9993	0,0261	0,4272	2,6109
5,98	1,0021	0,0271	0,4399	2,707
6	1,0209	0,0279	0,4413	2,7622
6,02	1,0615	0,029	0,4347	2,8717
6,04	1,1021	0,0301	0,4282	2,983
6,06	1,1405	0,0317	0,4373	2,8987
6,08	1,1669	0,0332	0,4196	2,866
6,1	1,1756	0,0346	0,4309	2,9429
6,12	1,1764	0,0358	0,4423	3,0456
6,14	1,1815	0,0367	0,4406	3,1187
6,16	1,1804	0,0367	0,4471	3,1003
6,18	1,168	0,0364	0,4493	3,105
6,2	1,1441	0,0368	0,4669	3,1931
6,22	1,1265	0,0357	0,485	3,1473
6,24	1,105	0,0348	0,5027	3,1273
6,26	1,1071	0,0335	0,5212	3,0461
6,28	1,1337	0,0331	0,5142	2,9447
6,3	1,1305	0,032	0,5359	2,8242
6,32	1,1371	0,0317	0,5458	2,7963
6,34	1,1496	0,0314	0,5466	2,7447
6,36	1,1682	0,0318	0,5453	2,7309
6,38	1,1786	0,031	0,5281	2,6409
6,4	1,1929	0,0313	0,5215	2,6385
6,42	1,1964	0,0311	0,5094	2,6095
6,44	1,1996	0,0313	0,5078	2,6128
6,46	1,2097	0,0313	0,5106	2,5925
6,48	1,2198	0,0309	0,4923	2,5467
6,5	1,2486	0,0322	0,462	2,6135
6,52	1,2649	0,035	0,4742	2,7783
6,54	1,214	0,0378	0,4946	3,0519
6,56	1,2376	0,041	0,5005	3,339
6,58	1,2692	0,0431	0,4591	3,4335
6,6	1,2837	0,0435	0,4121	3,3958
6,62	1,2708	0,0445	0,3908	3,4722
6,64	1,2744	0,0439	0,3801	3,4339
6,66	1,2615	0,0408	0,3894	3,2277
6,68	1,2308	0,0393	0,4183	3,1793
6,7	1,2343	0,0399	0,4168	3,2461
6,72	1,254	0,0399	0,3973	3,1974
6,74	1,2642	0,0404	0,3651	3,1968
6,76	1,2301	0,0389	0,3937	3,1327
6,78	1,2279	0,0376	0,396	3,0652
6,8	1,2222	0,0342	0,4091	2,8002
6,82	1,2109	0,0307	0,4112	2,5351
6,84	1,289	0,0297	0,4001	2,3908
6,86	1,2921	0,0315	0,4082	2,3897
6,88	1,258	0,0375	0,4602	3,0368
6,9	1,33	0,0392	0,4105	3,1683
6,92	1,4019	0,0405	0,3608	3,2721
6,94	1,4668	0,042	0,3103	2,8962
6,96	1,4699	0,043	0,3131	2,8444
6,98	1,4097	0,0451	0,4586	3,1609
7	1,4123	0,0465	0,4278	3,3048
7,02	1,4294	0,0501	0,425	3,514
7,04	1,4512	0,0535	0,3995	3,7022
7,06	1,4675	0,0543	0,3541	3,711
7,08	1,4529	0,057	0,3524	3,9197
7,1	1,4667	0,06	0,3301	4,0869
7,12	1,4358	0,0627	0,3472	4,341
7,14	1,4331	0,0625	0,3609	4,3717
7,16	1,4379	0,0599	0,3158	4,181
7,18	1,4314	0,0574	0,2978	3,9704
7,2	1,3743	0,0571	0,3288	4,1107
7,22	1,3347	0,0545	0,3813	4,0415
7,24	1,3118	0,0505	0,4114	3,8491
7,26	1,3273	0,0502	0,4205	3,8112
7,28	1,3757	0,0523	0,3884	3,8581
7,3	1,4174	0,0531	0,3714	3,7715
7,32	1,4505	0,0515	0,3394	3,5776
7,34	1,5098	0,05	0,266	3,3567
7,36	1,5574	0,0506	0,2368	3,2754
7,38	1,5993	0,048	0,2174	3,0232
7,4	1,6126	0,0453	0,1942	2,8261
7,42	1,6159	0,0478	0,1726	2,9765
7,44	1,6649	0,0527	0,1528	3,1943
7,46	1,6459	0,052	0,1532	3,1261
7,48	1,6479	0,0519	0,1339	3,1617
7,5	1,6723	0,0479	0,0809	2,8768
7,52	1,6643	0,0518	0,0775	3,1004
7,54	1,7132	0,0577	0,0961	3,4359
7,56	1,8644	0,0636	0,0082	3,5325
7,58	2,0046	0,0716	0,0102	3,6451
7,6	2,0707	0,0876	-0,0396	4,2433
7,62	2,1125	0,1011	-0,0598	4,7227
7,64	2,0411	0,1156	-0,0662	5,6209
7,66	2,003	0,1182	-0,0601	5,8437
7,68	1,9607	0,1101	-0,0601	5,5996
7,7	1,9014	0,106	-0,059	5,4799
7,72	1,8056	0,097	-0,0573	5,2358
7,74	1,7289	0,0896	-0,0506	5,0524
7,76	1,6898	0,0889	-0,0409	5,24
7,78	1,7491	0,1003	-0,0429	5,8549
7,8	1,8194	0,1077	-0,0329	6,0231
7,82	1,8296	0,1095	-0,0302	6,0079
7,84	1,8881	0,0983	-0,0344	5,379
7,86	1,9466	0,1015	-0,0332	5,4779
7,88	2,0357	0,1025	-0,02	5,1057
7,9	2,1613	0,0913	-0,0169	4,2739
7,92	2,3064	0,1039	-0,0204	4,6356
7,94	2,7006	0,1248	-0,0412	4,8208
7,96	3,0091	0,1402	-0,0492	4,7519
7,98	3,0979	0,1543	-0,0618	4,9193
8	2,8736	0,1595	-0,0745	5,4795
8,02	2,7133	0,1562	-0,0709	5,6809
8,04	2,5855	0,1447	-0,0652	5,5457
8,06	2,5139	0,1271	-0,0589	5,0379
8,08	2,4759	0,1243	-0,0505	5,0007
8,1	2,444	0,1377	-0,0397	5,6215
8,12	2,4641	0,1465	-0,0352	5,9681
8,14	2,5293	0,1448	-0,0325	5,7698
8,16	2,5953	0,1306	-0,0295	5,0751
8,18	2,6603	0,1273	-0,0218	4,8361
8,2	2,7743	0,1414	-0,0054	5,1738
8,22	2,9242	0,1512	0,0147	5,2477
8,24	3,0446	0,1539	0,0154	5,0945
8,26	3,0748	0,1516	0,0034	4,9279
8,28	3,0257	0,1552	-0,0167	5,1073
8,3	2,9862	0,1539	-0,0133	5,1294
8,32	2,8796	0,1488	-0,0128	5,1164
8,34	2,7575	0,1435	0,0006	5,156
8,36	2,671	0,1345	0,0156	4,9993
8,38	2,5907	0,1306	0,0485	4,9945
8,4	2,5379	0,1235	0,0804	4,8394
8,42	2,5751	0,1247	0,0983	4,9024
8,44	2,7403	0,1164	0,1015	4,3565
8,46	2,8383	0,1128	0,0664	3,9879
8,48	2,853	0,104	0,0232	3,6534
8,5	2,719	0,1146	0,0023	4,1392
8,52	2,671	0,1181	0,0388	4,4003
8,54	2,6908	0,1109	0,0591	4,141
8,56	2,9891	0,1033	0,0288	3,619
8,58	2,9459	0,1029	0,0074	3,4028
8,6	2,9532	0,1062	0,0156	3,7853
8,62	3,1853	0,108	0,0031	3,5014
8,64	2,832	0,1073	-0,0048	3,7963
8,66	2,9765	0,1059	-0,0123	3,4462
8,68	2,7458	0,0906	-0,0163	3,1356
8,7	2,5917	0,0754	0,0025	2,825
8,72	2,529	0,0776	-0,0063	3,073
8,74	2,1863	0,0758	-0,0179	3,2782
8,76	1,9096	0,0738	0,0253	3,7479
8,78	1,8337	0,0692	0,1189	3,6645
8,8	1,7722	0,0634	0,2126	3,3577
8,82	1,6866	0,0608	0,3148	3,5288
8,84	1,663	0,0626	0,3382	3,7722
8,86	1,5842	0,0663	0,3857	4,1398
8,88	1,5795	0,0653	0,4166	4,1906
8,9	1,6431	0,0731	0,4212	4,5107
8,92	1,7733	0,08	0,4097	4,6256
8,94	2,0196	0,0828	0,3483	4,278
8,96	2,2726	0,0865	0,2621	3,8961
8,98	2,2638	0,0827	0,1093	3,5577
9	2,1252	0,0851	0,1416	3,9303
9,02	1,8369	0,0762	0,1791	4,0409
9,04	1,6968	0,0638	0,2822	3,6945
9,06	1,6843	0,0543	0,3649	3,2355
9,08	1,788	0,0585	0,3923	3,3438
9,1	2,1019	0,0558	0,3443	2,8781
9,12	2,4497	0,0484	0,1084	2,013
9,14	2,2889	0,0575	0,0091	2,3659
9,16	1,7687	0,063	0,002	3,2204
9,18	1,607	0,0607	0,0918	3,7052
9,2	1,6096	0,0623	0,2341	3,8891
9,22	1,6853	0,0738	0,247	4,4607
9,24	1,7784	0,0865	0,3255	4,9025
9,26	1,8786	0,1017	0,3859	5,504
9,28	2,0582	0,1079	0,3791	5,3689
9,3	2,2416	0,1126	0,3372	5,1259
9,32	2,3731	0,1131	0,307	4,8471
9,34	2,5288	0,0923	0,2795	3,7444
9,36	2,7605	0,0859	0,2197	3,2172
9,38	2,8901	0,0845	0,1567	2,9599
9,4	2,9393	0,0818	0,017	2,8036
9,42	2,6883	0,0693	0,0117	2,45
9,44	2,3382	0,0643	0,026	2,6199
9,46	2,1355	0,0595	0,0259	2,6939
9,48	1,7243	0,0609	0,2728	3,1044
9,5	1,5123	0,0569	0,371	3,7495
9,52	1,5368	0,0601	0,3749	3,9327
9,54	1,9743	0,055	0,356	2,9643
9,56	2,3534	0,056	0,1738	2,5298
9,58	2,2868	0,0545	-0,0351	2,2933
9,6	1,6973	0,0525	-0,0536	2,4419
9,62	1,5514	0,0463	0,0126	2,4513
9,64	1,5436	0,0402	0,0994	2,4608
9,66	1,5614	0,0368	0,1998	2,3579
9,68	1,5682	0,0372	0,2415	2,386
9,7	1,5388	0,0386	0,2985	2,4909
9,72	1,5415	0,041	0,4211	2,6697
9,74	1,5483	0,0505	0,5438	3,2907
9,76	1,5617	0,0528	0,6511	3,3991
9,78	1,5991	0,0565	0,6655	3,554
9,8	1,6436	0,0566	0,5753	3,4672
9,82	1,6899	0,0595	0,4778	3,5374
9,84	1,6969	0,0651	0,5266	3,8289
9,86	1,6921	0,0642	0,5193	3,7941
9,88	1,6668	0,0568	0,5028	3,389
9,9	1,6167	0,0505	0,4638	3,1064
9,92	1,5602	0,0519	0,4934	3,3011
9,94	1,5143	0,0506	0,5449	3,3257
9,96	1,5154	0,0516	0,5838	3,4059
9,98	1,5556	0,0529	0,591	3,4285
10	1,6416	0,0553	0,5653	3,4133
10,02	1,6832	0,0576	0,5562	3,4351
10,04	1,6858	0,055	0,5446	3,2664
10,06	1,6801	0,0523	0,5389	3,1022
10,08	1,6502	0,0515	0,5301	3,1056
10,1	1,6151	0,052	0,5487	3,1976
10,12	1,5867	0,0489	0,5869	3,0688
10,14	1,5765	0,049	0,5911	3,114
10,16	1,5903	0,0517	0,5668	3,2603
10,18	1,6156	0,0525	0,5692	3,2656
10,2	1,6484	0,0507	0,5562	3,0863
10,22	1,6517	0,0491	0,5346	2,9698
10,24	1,641	0,0495	0,5312	3,0086
10,26	1,6186	0,0505	0,5508	3,1105
10,28	1,6138	0,0525	0,6056	3,2552
10,3	1,6701	0,0525	0,6042	3,1942
10,32	1,7348	0,0536	0,5828	3,1273
10,34	1,7878	0,0532	0,5645	2,9977
10,36	1,8145	0,0553	0,5571	3,0657
10,38	1,8448	0,0567	0,5559	3,0893
10,4	1,8622	0,055	0,5497	2,9632
10,42	1,8833	0,0544	0,541	2,8974
10,44	1,89	0,0546	0,5037	2,8853
10,46	1,8794	0,0534	0,492	2,8388
10,48	1,8528	0,0547	0,5051	2,9287
10,5	1,8206	0,0537	0,5493	2,9448
10,52	1,8445	0,0527	0,55	2,8767
10,54	1,865	0,0562	0,552	3,0475
10,56	1,8727	0,0604	0,5295	3,2679
10,58	1,8534	0,0647	0,5507	3,4882
10,6	1,8302	0,0868	0,5765	4,7417
10,62	1,8072	0,0975	0,6046	5,3948
10,64	1,9429	0,099	0,4438	5,5266
10,66	2,3316	0,0976	0,2136	5,4561
10,68	2,7203	0,0863	-0,0165	4,8224
10,7	2,7765	0,0733	-0,0267	2,5936
10,72	2,4992	0,066	0,0217	2,5861
10,74	2,2401	0,0623	0,1421	2,7299
10,76	2,0715	0,0593	0,2588	2,8223
10,78	2,0131	0,0613	0,3591	3,0349
10,8	2,0534	0,0626	0,4068	3,0669
10,82	2,1019	0,0628	0,4616	2,9998
10,84	2,1512	0,0638	0,4895	2,9801
10,86	2,21	0,0625	0,5031	2,8461
10,88	2,2805	0,0607	0,4848	2,6812
10,9	2,3121	0,061	0,4477	2,6408
10,92	2,273	0,0571	0,4169	2,4936
10,94	2,1988	0,0545	0,41	2,4475
10,96	2,0787	0,0534	0,4303	2,5232
10,98	1,9665	0,0537	0,4664	2,6959
11	1,9194	0,0522	0,5278	2,7113
11,02	1,9117	0,0512	0,577	2,6809
11,04	1,9279	0,0519	0,5937	2,6936
11,06	1,951	0,0538	0,5985	2,7687
11,08	1,998	0,0561	0,5964	2,8218
11,1	2,0814	0,0582	0,5653	2,826
11,12	2,2059	0,0569	0,4956	2,6187
11,14	2,3045	0,0532	0,4421	2,333
11,16	2,3549	0,0541	0,4239	2,3072
11,18	2,3657	0,0533	0,4288	2,2549
11,2	2,3594	0,0463	0,4181	1,9545
11,22	2,273	0,042	0,4041	1,811
11,24	2,0856	0,0384	0,4364	1,7793
11,26	1,9178	0,0351	0,4728	1,7752
11,28	1,752	0,034	0,5429	1,8789
11,3	1,6012	0,0353	0,6082	2,1513
11,32	1,5412	0,036	0,6552	2,3266
11,34	1,5477	0,04	0,686	2,5971
11,36	1,6119	0,0429	0,7049	2,7077
11,38	1,7304	0,0465	0,7075	2,7422
11,4	1,8509	0,0522	0,6925	2,8698
11,42	1,9845	0,0576	0,6381	2,9683
11,44	2,1246	0,0592	0,6133	2,8577
11,46	2,233	0,0622	0,5654	2,8718
11,48	2,3024	0,0653	0,507	2,886
11,5	2,311	0,0741	0,4728	3,2026
11,52	2,276	0,0843	0,4682	3,7005
11,54	2,1975	0,0881	0,4443	4,0048
11,56	2,4354	0,0855	0,2946	3,9034
11,58	2,7047	0,0816	0,1448	3,7261
11,6	2,9605	0,0794	0,0785	3,0701
11,62	2,7425	0,0725	0,176	2,6007
11,64	2,5955	0,0673	0,2951	2,5628
11,66	2,521	0,0615	0,337	2,4269
11,68	2,4437	0,0561	0,3487	2,2822
11,7	2,3265	0,0522	0,3819	2,2169
11,72	2,1916	0,0482	0,4416	2,1704
11,74	2,0823	0,0426	0,4888	2,0213
11,76	1,9693	0,0391	0,5286	1,9637
11,78	1,8575	0,037	0,5673	1,9726
11,8	1,746	0,0343	0,6068	1,9413
11,82	1,6312	0,0325	0,6399	1,9666
11,84	1,5352	0,0309	0,6686	1,9886
11,86	1,4667	0,0304	0,695	2,0531
11,88	1,4114	0,0314	0,7218	2,2057
11,9	1,3836	0,0294	0,7351	2,1176
11,92	1,361	0,0276	0,7395	2,0192
11,94	1,3434	0,0284	0,7397	2,1026
11,96	1,3178	0,0294	0,7454	2,2245
11,98	1,2981	0,0298	0,771	2,2918
12	1,3006	0,0272	0,7694	2,0957
12,02	1,3147	0,0265	0,7442	2,0147
12,04	1,2916	0,0265	0,7379	2,0347
12,06	1,2514	0,0259	0,7513	2,059
12,08	1,2191	0,0269	0,777	2,1918
12,1	1,2166	0,0285	0,7681	2,3533
12,12	1,2374	0,0273	0,7731	2,2139
12,14	1,26	0,0275	0,7616	2,1903
12,16	1,2671	0,0277	0,7149	2,1935
12,18	1,2663	0,0277	0,7047	2,1746
12,2	1,2509	0,0275	0,7399	2,1852
12,22	1,2397	0,0279	0,7469	2,2484
12,24	1,2449	0,0269	0,7479	2,1615
12,26	1,2284	0,0271	0,7671	2,1907
12,28	1,2276	0,027	0,756	2,2062
12,3	1,2285	0,0273	0,7637	2,2224
12,32	1,2304	0,0275	0,7779	2,2357
12,34	1,2415	0,0281	0,7691	2,27
12,36	1,2703	0,0289	0,7677	2,289
12,38	1,3166	0,0323	0,7674	2,4818
12,4	1,3839	0,0342	0,7752	2,5226
12,42	1,4988	0,0328	0,7747	2,2719
12,44	1,6243	0,0314	0,7437	2,0212
12,46	1,7085	0,0392	0,7027	2,3349
12,48	1,7646	0,0541	0,69	3,0932
12,5	1,8109	0,0613	0,7041	3,4278
12,52	2,1252	0,0641	0,5015	3,5047
12,54	2,537	0,0672	0,2989	3,6758
12,56	2,9488	0,0612	0,1852	2,5399
12,58	2,7855	0,062	0,2342	2,201
12,6	2,5721	0,0751	0,363	2,8831
12,62	2,4665	0,0905	0,5547	3,6633
12,64	2,7515	0,1042	0,7208	3,8904
12,66	3,4235	0,1175	0,6141	3,5758
12,68	4,0983	0,1253	0,2331	3,1552
12,7	4,3045	0,1299	0,0971	3,026
12,72	4,2379	0,1292	0,0703	3,0353
12,74	4,0821	0,123	0,0922	2,9917
12,76	3,8829	0,1114	0,1251	2,8473
12,78	3,6588	0,1019	0,1676	2,7565
12,8	3,4651	0,0929	0,1918	2,6558
12,82	3,2763	0,0808	0,2428	2,4344
12,84	3,0445	0,07	0,3043	2,2537
12,86	2,8305	0,0599	0,3214	2,0792
12,88	2,633	0,0504	0,343	1,8731
12,9	2,4161	0,0428	0,3792	1,7208
12,92	2,212	0,0368	0,4062	1,6236
12,94	2,0259	0,032	0,422	1,5488
12,96	1,8429	0,0288	0,4398	1,528
12,98	1,6331	0,0276	0,5073	1,6463
13	1,4932	0,0298	0,5707	1,9807
13,02	1,4657	0,0336	0,6255	2,2973
13,04	1,5274	0,037	0,6497	2,4561
13,06	1,6501	0,0399	0,6421	2,4659
13,08	1,7904	0,0438	0,6166	2,505
13,1	1,9167	0,0468	0,5892	2,4866
13,12	2,0192	0,0477	0,5543	2,3948
13,14	2,0502	0,0466	0,5208	2,2798
13,16	2,0399	0,0447	0,5014	2,1842
13,18	1,9985	0,0438	0,5208	2,1707
13,2	1,9247	0,0422	0,5728	2,1673
13,22	1,8825	0,0395	0,6044	2,0873
13,24	1,8498	0,0395	0,6381	2,1261
13,26	1,8485	0,0392	0,6743	2,1259
13,28	1,8657	0,0395	0,6983	2,1276
13,3	1,8947	0,039	0,6731	2,0661
13,32	1,897	0,0389	0,6194	2,0466
13,34	1,8745	0,0368	0,5888	1,9516
13,36	1,8263	0,0342	0,5711	1,8542
13,38	1,7563	0,0341	0,5761	1,9256
13,4	1,6726	0,0389	0,5901	2,314
13,42	1,6016	0,0437	0,6175	2,7025
13,44	1,5189	0,0491	0,6502	3,193
13,46	1,4797	0,0487	0,6557	3,2741
13,48	1,4485	0,0445	0,6109	3,0606
13,5	1,5816	0,0398	0,4482	2,7489
13,52	1,7286	0,0342	0,2856	2,3681
13,54	1,7331	0,0306	0,3523	1,7222
13,56	1,5265	0,03	0,4911	1,9127
13,58	1,3942	0,028	0,5597	1,9807
13,6	1,3049	0,0258	0,6028	1,9522
13,62	1,2285	0,0253	0,6356	2,0367
13,64	1,1765	0,0243	0,666	2,0575
13,66	1,1431	0,0232	0,7009	2,0166
13,68	1,1236	0,025	0,7189	2,2218
13,7	1,1445	0,028	0,7284	2,4717
13,72	1,222	0,0303	0,7382	2,5194
13,74	1,341	0,0327	0,7125	2,4899
13,76	1,479	0,0378	0,5994	2,6162
13,78	1,6243	0,0413	0,5564	2,6056
13,8	1,7231	0,0435	0,6231	2,5594
13,82	1,8475	0,0427	0,6016	2,3426
13,84	1,9041	0,0435	0,5751	2,297
13,86	1,9424	0,0458	0,6153	2,3658
13,88	1,9772	0,0462	0,6362	2,3459
13,9	2,0527	0,0455	0,6293	2,2366
13,92	2,1125	0,045	0,5826	2,1389
13,94	2,1586	0,0454	0,5777	2,1074
13,96	2,1776	0,0459	0,5985	2,1114
13,98	2,146	0,0448	0,6505	2,0798
14	2,1131	0,0409	0,6972	1,9297
14,02	2,1208	0,0397	0,7889	1,8754
14,04	2,1606	0,0417	0,8806	1,9443
14,06	2,2698	0,0462	0,9261	2,0729
14,08	2,4163	0,0535	0,8698	2,2548
14,1	2,5556	0,0556	0,6927	2,2102
14,12	2,6099	0,0582	0,5374	2,2326
14,14	2,5802	0,0599	0,4528	2,2923
14,16	2,4448	0,0598	0,4019	2,4081
14,18	2,2874	0,0578	0,5627	2,4711
14,2	2,1713	0,0513	0,6455	2,3486
14,22	2,1457	0,0478	0,7083	2,2303
14,24	2,1711	0,0493	0,7666	2,2802
14,26	2,235	0,0529	0,7903	2,3891
14,28	2,3136	0,0543	0,794	2,3671
14,3	2,3957	0,0542	0,677	2,321
14,32	2,4128	0,0533	0,5847	2,2426
14,34	2,3611	0,0552	0,5299	2,3243
14,36	2,2721	0,0575	0,5786	2,5201
14,38	2,2143	0,0587	0,5355	2,6473
14,4	2,1836	0,0601	0,5156	2,7798
14,42	2,2329	0,0602	0,475	2,7861
14,44	2,2821	0,0583	0,5104	2,6055
14,46	2,2093	0,0552	0,5927	2,4867
14,48	2,1348	0,0494	0,6676	2,2974
14,5	2,0978	0,0456	0,7156	2,1671
14,52	2,0591	0,0431	0,7902	2,0881
14,54	2,0429	0,0427	0,8542	2,0852
14,56	2,0385	0,0443	0,8464	2,1776
14,58	2,0593	0,0491	0,7806	2,3913
14,6	2,1019	0,0525	0,7244	2,509
14,62	2,1411	0,0522	0,6619	2,4393
14,64	2,1281	0,0489	0,6288	2,2893
14,66	2,0835	0,0564	0,6588	2,6781
14,68	2,0758	0,0687	0,7979	3,2946
14,7	2,1657	0,0763	0,8887	3,6074
14,72	2,2592	0,0793	0,8277	3,5599
14,74	2,2218	0,0853	0,6744	3,7741
14,76	2,2325	0,0903	0,4525	4,136
14,78	2,4104	0,088	0,217	4,0457
14,8	2,5758	0,0833	0,121	3,448
14,82	2,4178	0,0755	0,1767	3,0727
14,84	2,284	0,0689	0,2306	2,988
14,86	2,1574	0,0651	0,3539	2,9919
14,88	2,09	0,0637	0,4676	3,0382
14,9	2,0452	0,066	0,5381	3,2194
14,92	2,1263	0,0673	0,5025	3,1955
14,94	2,1778	0,0679	0,4992	3,1288
14,96	2,2114	0,071	0,5438	3,2135
14,98	2,2292	0,071	0,5595	3,2
15	2,2494	0,0724	0,6001	3,2217
15,02	2,2861	0,0721	0,6123	3,1797
15,04	2,3608	0,0735	0,6013	3,1432
15,06	2,4371	0,0734	0,6781	3,0397
15,08	2,5403	0,077	0,706	3,0726
15,1	2,6334	0,0816	0,7695	3,1226
15,12	2,7103	0,0822	0,7766	3,0523
15,14	2,7578	0,0836	0,8138	3,0401
15,16	2,8169	0,085	0,7566	3,0311
15,18	2,8931	0,0882	0,7871	3,0571
15,2	2,9342	0,0912	0,8033	3,1152
15,22	2,9799	0,0968	0,8439	3,268
15,24	3,0939	0,1025	0,8543	3,3348
15,26	3,2225	0,1068	0,8312	3,3362
15,28	3,3742	0,111	0,8589	3,3377
15,3	3,5503	0,1103	0,8422	3,1599
15,32	3,6947	0,1096	0,9193	2,9888
15,34	3,7972	0,1122	0,9545	2,9815
15,36	4,013	0,1151	0,9498	3,0314
15,38	4,2289	0,1191	0,9452	3,137
15,4	4,428	0,124	0,8551	2,8121
15,42	4,5329	0,1289	0,7181	2,8469
15,44	4,5497	0,1314	0,6167	2,8855
15,46	4,5298	0,1404	0,5404	3,0984
15,48	4,49	0,1474	0,4561	3,2819
15,5	4,4409	0,1479	0,3644	3,3247
15,52	4,3343	0,1451	0,351	3,3427
15,54	4,2904	0,1313	0,293	3,0574
15,56	4,2107	0,1281	0,4295	3,0394
15,58	4,1694	0,1282	0,5431	3,0756
15,6	4,194	0,1216	0,6152	2,8998
15,62	4,1932	0,121	0,6533	2,8839
15,64	4,3309	0,1252	0,5009	2,9081
15,66	4,5184	0,136	0,4116	3,0189
15,68	4,5516	0,1484	0,4435	3,2652
15,7	4,5934	0,1469	0,3277	3,2056
15,72	4,5769	0,1477	0,2043	3,2243
15,74	4,5212	0,1504	0,1029	3,3246
15,76	4,4093	0,1512	0,0347	3,4172
15,78	4,2122	0,1482	0,0162	3,4937
15,8	3,9692	0,1414	0,0004	3,5412
15,82	3,7789	0,1352	0,018	3,5592
15,84	3,6255	0,1247	0,074	3,4234
15,86	3,4622	0,1148	0,1964	3,2944
15,88	3,3157	0,1066	0,2912	3,1916
15,9	3,2208	0,0973	0,3673	3,0004
15,92	3,1476	0,0919	0,4756	2,9028
15,94	3,1918	0,0832	0,4804	2,631
15,96	3,3382	0,0877	0,465	2,6578
15,98	3,5047	0,0925	0,4544	2,6777
16	3,7003	0,0901	0,4154	2,4699
16,02	3,8223	0,0949	0,3918	2,4941
16,04	3,8812	0,1018	0,2237	2,6175
16,06	3,8147	0,0977	0,2105	2,5469
16,08	3,7548	0,0923	0,3184	2,4579
16,1	3,8265	0,0864	0,2014	2,2927
16,12	3,981	0,0782	0,182	1,9743
16,14	4,3012	0,0785	0,3749	1,8424
16,16	4,9686	0,0859	0,2259	1,7782
16,18	5,3588	0,1017	0,1109	1,9044
16,2	5,4571	0,1245	0,0872	2,271
16,22	5,5898	0,148	-0,0512	2,6499
16,24	5,7376	0,1639	-0,0835	2,8828
16,26	5,7297	0,1631	-0,0801	2,8373
16,28	5,5052	0,1646	-0,0767	2,9419
16,3	5,3274	0,1566	-0,0724	2,9148
16,32	5,2398	0,1539	-0,0684	2,8646
16,34	5,1522	0,1448	-0,0651	2,7507
16,36	4,8361	0,1315	-0,0659	2,6967
16,38	4,4789	0,1172	-0,0664	2,5936
16,4	4,1324	0,1127	-0,0452	2,7067
16,42	3,8592	0,1102	0,0312	2,8358
16,44	3,6387	0,1002	0,1586	2,7403
16,46	3,5881	0,0911	0,1946	2,536
16,48	3,641	0,0937	0,1378	2,5782
16,5	3,622	0,0981	0,1379	2,7048
16,52	3,5509	0,1014	0,1875	2,8498
16,54	3,4883	0,0937	0,1955	2,6879
16,56	3,5232	0,0944	0,1504	2,6837
16,58	3,5169	0,0915	0,1705	2,5987
16,6	3,5114	0,0856	0,1791	2,4353
16,62	3,3944	0,0875	0,297	2,5584
16,64	3,3861	0,0886	0,3391	2,6238
16,66	3,3877	0,0792	0,3985	2,3354
16,68	3,3878	0,0738	0,4346	2,1836
16,7	3,4213	0,0782	0,4454	2,2937
16,72	3,5007	0,0867	0,5101	2,4811
16,74	3,5732	0,0973	0,525	2,7303
16,76	3,6339	0,097	0,3886	2,6788
16,78	3,6568	0,0899	0,2042	2,455
16,8	3,5315	0,0899	0,2052	2,5284
16,82	3,382	0,0902	0,2526	2,6479
16,84	3,1748	0,0831	0,403	2,5822
16,86	2,9543	0,0783	0,573	2,6151
16,88	2,9279	0,0812	0,5202	2,7917
16,9	2,9956	0,085	0,5062	2,8541
16,92	3,0784	0,0898	0,5369	2,9332
16,94	3,1961	0,0911	0,5618	2,8749
16,96	3,323	0,0982	0,5395	2,994
16,98	3,4731	0,1077	0,5295	3,1195
17	3,5359	0,1112	0,4948	3,1553
17,02	3,5661	0,1099	0,4101	3,0815
17,04	3,5166	0,1078	0,3702	3,0566
17,06	3,4049	0,1046	0,4119	3,0561
17,08	3,2585	0,0933	0,455	2,8483
17,1	3,1387	0,0835	0,4849	2,6415
17,12	3,0472	0,0842	0,5142	2,736
17,14	2,9888	0,0834	0,5668	2,7251
17,16	3,0316	0,0826	0,5993	2,7141
17,18	3,0663	0,0881	0,5543	2,8827
17,2	3,2022	0,1024	0,4321	3,2189
17,22	3,2739	0,1112	0,368	3,3994
17,24	3,5465	0,1124	0,2177	3,4324
17,26	3,8245	0,1065	0,0673	3,2505
17,28	4,1025	0,0962	-0,0506	2,4541
17,3	3,8755	0,0937	-0,0474	2,4081
17,32	3,5898	0,0887	0,0247	2,4487
17,34	3,3522	0,0827	0,118	2,4542
17,36	3,1851	0,079	0,1844	2,4712
17,38	3,0997	0,073	0,2086	2,3466
17,4	2,9561	0,0743	0,2693	2,5077
17,42	2,8376	0,0729	0,3228	2,5629
17,44	2,7167	0,063	0,377	2,3046
17,46	2,5531	0,0581	0,4377	2,261
17,48	2,4321	0,0556	0,485	2,2757
17,5	2,3049	0,0537	0,5561	2,316
17,52	2,1613	0,0519	0,6365	2,3798
17,54	2,0728	0,0511	0,6568	2,457
17,56	2,0846	0,0498	0,6673	2,3894
17,58	2,0838	0,0513	0,7119	2,4603
17,6	2,0488	0,0512	0,7359	2,4902
17,62	2,0495	0,0507	0,7354	2,4827
17,64	2,1418	0,0555	0,7178	2,6014
17,66	2,1971	0,0585	0,6881	2,6679
17,68	2,1944	0,0584	0,6977	2,6575
17,7	2,1726	0,0578	0,6574	2,6607
17,72	2,1042	0,0557	0,5732	2,6409
17,74	2,0442	0,0527	0,5854	2,5633
17,76	1,9458	0,0522	0,608	2,667
17,78	1,8786	0,0522	0,6524	2,7575
17,8	1,854	0,0552	0,7083	2,9768
17,82	1,888	0,0552	0,7319	2,9435
17,84	1,9525	0,0571	0,7154	2,9469
17,86	2,027	0,0597	0,6964	2,9627
17,88	2,0647	0,0619	0,687	3,0046
17,9	2,0753	0,061	0,7029	2,938
17,92	2,0896	0,0592	0,7011	2,84
17,94	2,1054	0,0602	0,7134	2,8619
17,96	2,1204	0,0591	0,7326	2,7934
17,98	2,1254	0,0575	0,7497	2,7032
18	2,1516	0,0595	0,7357	2,7709
18,02	2,2116	0,0576	0,6915	2,6144
18,04	2,2131	0,0545	0,7147	2,4628
18,06	2,1939	0,0483	0,7512	2,1865
18,08	2,2049	0,0422	0,7625	1,9103
18,1	2,2132	0,049	0,8333	2,2158
18,12	2,2569	0,0634	0,8478	2,8342
18,14	2,3229	0,0683	0,8083	2,9563
18,16	2,5495	0,0754	0,6722	3,2307
18,18	2,811	0,078	0,536	3,3432
18,2	3,0206	0,0726	0,516	2,4004
18,22	2,9059	0,0695	0,5616	2,3867
18,24	2,7889	0,0675	0,5806	2,4158
18,26	2,6738	0,0644	0,6882	2,4034
18,28	2,5698	0,0623	0,8006	2,4253
18,3	2,5458	0,062	0,8562	2,4369
18,32	2,5873	0,0627	0,8815	2,4216
18,34	2,6181	0,065	0,9122	2,4822
18,36	2,6509	0,0669	0,8969	2,5253
18,38	2,6666	0,0695	0,8399	2,6053
18,4	2,6833	0,0727	0,8201	2,7101
18,42	2,7363	0,0738	0,7849	2,6954
18,44	2,7707	0,076	0,7181	2,7423
18,46	2,7643	0,0714	0,7083	2,5824
18,48	2,7357	0,073	0,687	2,667
18,5	2,7545	0,0708	0,6679	2,5745
18,52	2,7798	0,0706	0,6314	2,544
18,54	2,9635	0,073	0,4924	2,4756
18,56	2,9694	0,073	0,3272	2,4513
18,58	2,9012	0,0725	0,2367	2,4979
18,6	2,7548	0,0705	0,2431	2,56
18,62	2,6474	0,0699	0,2279	2,6397
18,64	2,6128	0,0672	0,2819	2,5712
18,66	2,6675	0,0617	0,2665	2,3166
18,68	2,6983	0,0586	0,2254	2,1735
18,7	2,684	0,0594	0,1672	2,2118
18,72	2,5902	0,0602	0,1815	2,3098
18,74	2,4885	0,063	0,2069	2,5183
18,76	2,4107	0,0644	0,2699	2,6568
18,78	2,3758	0,0634	0,3449	2,6599
18,8	2,4697	0,0606	0,381	2,4782
18,82	2,6078	0,0658	0,3571	2,5423
18,84	2,6914	0,072	0,3569	2,6799
18,86	2,7118	0,0754	0,3871	2,7797
18,88	2,7465	0,0835	0,4475	3,0417
18,9	2,8169	0,0962	0,5246	3,4771
18,92	3,1482	0,1034	0,5374	3,4741
18,94	3,746	0,1138	0,55	3,2908
18,96	4,9289	0,1234	0,4112	2,7427
18,98	6,6788	0,1297	0,0442	1,9655
19	8,3448	0,1087	-0,0868	1,4978
19,02	9,3169	0,0878	-0,0885	1,0301
19,04	9,9647	0,0834	-0,0889	0,839
19,06	10,6838	0,0966	-0,0848	0,9056
19,08	11,5007	0,1109	-0,0838	0,9633
19,1	11,8626	0,1197	-0,077	1,0166
19,12	11,998	0,115	-0,0702	0,9767
19,14	12,12	0,1051	-0,0685	0,8777
19,16	12,4755	0,0961	-0,0629	0,7858
19,18	13,3058	0,0881	-0,0599	0,6623
19,2	13,7104	0,0788	-0,0689	0,5745
19,22	13,5951	0,0728	-0,0719	0,5355
19,24	13,5263	0,0763	-0,0722	0,5632
19,26	13,5191	0,0765	-0,069	0,5658
19,28	13,7044	0,0887	-0,0645	0,6529
19,3	14,0733	0,1039	-0,061	0,7466
19,32	14,9413	0,1069	-0,0567	0,7324
19,34	16,5978	0,0951	-0,046	0,6032
19,36	17,9155	0,0917	-0,0441	0,5221
19,38	19,2385	0,0852	-0,0565	0,4467
19,4	19,3195	0,0897	-0,064	0,464
19,42	18,9031	0,0972	-0,064	0,5087
19,44	18,1081	0,11	-0,0633	0,6078
19,46	17,4261	0,1224	-0,0585	0,703
19,48	16,8101	0,1332	-0,0553	0,793
19,5	16,474	0,1213	-0,0501	0,7289
19,52	16,4216	0,1064	-0,045	0,645
19,54	16,6122	0,0966	-0,0383	0,5842
19,56	17,0334	0,0998	-0,0315	0,589
19,58	17,6982	0,0973	-0,0292	0,5537
19,6	18,4169	0,0921	-0,0105	0,5086
19,62	19,0286	0,0965	0,0126	0,5325
19,64	19,7697	0,1084	-0,0106	0,557
19,66	20,6179	0,1282	-0,0269	0,6265
19,68	20,9223	0,1428	-0,0326	0,6837
19,7	20,8715	0,1501	-0,0428	0,7192
19,72	20,827	0,1547	-0,031	0,7428
19,74	21,2268	0,1543	-0,015	0,7332
19,76	21,8398	0,1531	-0,0062	0,709
19,78	22,5573	0,1543	0,0075	0,6926
19,8	23,1972	0,1564	-0,0127	0,6827
19,82	23,8887	0,1619	-0,029	0,685
19,84	24,2255	0,1768	-0,0292	0,7326
19,86	24,1268	0,1935	-0,0165	0,7987
19,88	23,5717	0,2003	-0,008	0,8418
19,9	23,0965	0,1992	0,0024	0,8604
19,92	22,9501	0,1994	0,0152	0,8689
19,94	23,2488	0,2057	0,0299	0,8913
19,96	24,1468	0,2119	0,0504	0,8859
19,98	25,7743	0,2208	0,0729	0,8623
20	27,5817	0,2255	0,0741	0,8226
20,02	28,3798	0,2288	0,0551	0,8116
20,04	28,8266	0,2074	0,0277	0,7264
20,06	28,9343	0,1876	0,0225	0,6481
20,08	28,7348	0,2018	0,0364	0,7014
20,1	28,5163	0,2204	0,0521	0,7705
20,12	28,0793	0,2318	0,067	0,8191
20,14	26,8367	0,2361	0,0924	0,8483
20,16	25,4278	0,233	0,1179	0,8375
20,18	24,5009	0,2212	0,1505	0,89
20,2	23,0292	0,211	0,1489	0,8991
20,22	21,7425	0,2051	0,1479	0,9354
20,24	20,9671	0,1988	0,1495	0,9485
20,26	21,0253	0,1956	0,1532	0,9357
20,28	21,8991	0,1897	0,1579	0,8829
20,3	23,5652	0,1574	0,0472	0,684
20,32	25,0259	0,1465	-0,0381	0,5884
20,34	25,7526	0,1486	-0,0591	0,5806
20,36	25,7336	0,1586	-0,062	0,6162
20,38	25,5828	0,1763	-0,0605	0,688
20,4	24,5891	0,1977	-0,0523	0,7938
20,42	22,1076	0,2214	-0,0474	0,9773
20,44	18,6337	0,2391	-0,0453	1,2384
20,46	14,5461	0,2346	-0,0416	1,7017
20,48	10,6281	0,23	-0,0381	2,165
20,5	7,5811	0,2226	-0,0331	2,837
20,52	5,6049	0,2056	-0,0223	3,6011
20,54	4,6024	0,1821	0,0441	3,9437
20,56	3,8341	0,136	0,1308	3,1235
20,58	3,0366	0,0919	0,2173	2,1114
20,6	2,3812	0,0442	0,5108	1,8503
20,62	2,3506	0,0529	0,9404	2,2481
20,64	2,5334	0,0569	1,0721	2,3621
20,66	4,0592	0,0808	1,0881	2,3638
20,68	7,8699	0,0838	0,7369	1,3094
20,7	13,1808	0,094	-0,0237	0,7345
20,72	20,9501	0,1226	-0,0542	0,5962
20,74	26,2431	0,1522	-0,06	0,5813
20,76	30,3569	0,1835	-0,04	0,6087
20,78	33,5407	0,2137	-0,0213	0,6413
20,8	35,2517	0,2235	0,0085	0,637
20,82	35,9343	0,2441	0,0063	0,6803
20,84	36,6714	0,2436	0,0614	0,6644
20,86	36,6796	0,2408	0,1146	0,6565
20,88	36,2627	0,2277	0,148	0,6277
20,9	36,0624	0,2097	0,1601	0,5816
20,92	36,7378	0,1758	0,1629	0,4803
20,94	37,8248	0,1381	0,1671	0,3673
20,96	38,6727	0,1365	0,1607	0,353
20,98	38,8604	0,1454	0,1512	0,3742
21	40,182	0,1512	0,0593	0,3759
21,02	40,659	0,1522	0,0439	0,3753
21,04	40,8873	0,1673	0,0268	0,4126
21,06	41,85	0,1777	0,0135	0,4373
21,08	41,4723	0,1855	0,0442	0,4557
21,1	39,8203	0,1923	0,0382	0,4801
21,12	37,868	0,208	0,0298	0,5467
21,14	35,2063	0,2205	0,0284	0,6068
21,16	31,9162	0,2266	0,0464	0,6765
21,18	27,6095	0,2308	0,0719	0,6897
21,2	23,3032	0,2385	0,1051	1,007
21,22	20,0852	0,2574	0,0883	1,2544
21,24	16,2238	0,2879	0,0677	1,7158
21,26	12,5851	0,2916	0,0541	2,2379
21,28	9,401	0,2686	0,0561	2,7651
21,3	7,383	0,2367	0,0883	3,1317
21,32	6,3323	0,2014	0,2022	3,1257
21,34	5,2453	0,1691	0,189	3,142
21,36	4,2418	0,1377	0,2091	3,2044
21,38	3,9199	0,1098	0,5749	2,784
21,4	3,7827	0,0956	0,6274	2,4985
21,42	3,3811	0,1009	0,7188	2,9383
21,44	3,1265	0,1055	0,7866	3,2391
21,46	3,0118	0,1092	0,8854	3,5027
21,48	3,0666	0,1152	0,9424	3,8134
21,5	3,2991	0,1464	0,9243	4,5911
21,52	3,6899	0,1759	0,8156	4,9978
21,54	4,4306	0,1992	0,536	5,0393
21,56	5,3616	0,2126	0,2291	5,3762
21,58	6,2926	0,2104	-0,0611	4,5589
21,6	6,7335	0,1973	-0,0548	2,932
21,62	6,8407	0,1801	-0,0541	2,6325
21,64	6,7783	0,1601	-0,0587	2,3572
21,66	6,5555	0,1461	-0,0497	2,2146
21,68	6,0742	0,14	-0,0362	2,3398
21,7	5,4148	0,1427	-0,0243	2,6561
21,72	4,8386	0,1454	0,0044	2,9725
21,74	4,4114	0,1478	0,0519	3,3135
21,76	3,9998	0,1418	0,1301	3,5142
21,78	3,721	0,1286	0,1425	3,4871
21,8	3,8473	0,1097	0,1102	2,9753
21,82	3,9736	0,0822	0,0778	2,229
21,84	3,9131	0,0659	0,1274	1,6437
21,86	3,3874	0,057	0,2799	1,6496
21,88	2,9958	0,0484	0,5018	1,5903
21,9	2,6948	0,0463	0,6839	1,7063
21,92	2,5911	0,057	0,8423	2,202
21,94	2,7175	0,069	0,9462	2,5392
21,96	2,9922	0,0819	0,9478	2,7568
21,98	3,3647	0,0966	0,7622	2,89
22	3,7102	0,1124	0,5514	3,0514
22,02	3,9005	0,1271	0,5895	3,2744
22,04	4,1355	0,1418	0,6347	3,4974
22,06	4,4151	0,1424	0,7042	3,2887
22,08	4,7405	0,1426	0,7826	3,0604
22,1	5,1516	0,1482	0,8019	2,9308
22,12	5,6136	0,1542	0,7724	2,9426
22,14	6,08	0,1629	0,7429	3,108
22,16	6,4025	0,1749	0,7266	2,7717
22,18	6,6236	0,1847	0,7406	2,8111
22,2	6,7771	0,1901	0,6903	2,8296
22,22	6,8963	0,1959	0,6492	2,8584
22,24	6,915	0,195	0,6877	2,813
22,26	6,8287	0,2001	0,8489	2,9201
22,28	6,8395	0,2034	0,8463	2,9895
22,3	7,0228	0,2017	0,7975	2,8984
22,32	7,2453	0,2082	0,8189	2,8731
22,34	7,5543	0,212	0,638	2,8017
22,36	7,7768	0,2197	0,5376	2,8227
22,38	7,8681	0,2256	0,5951	2,8661
22,4	7,9778	0,2295	0,5134	2,8742
22,42	8,1032	0,241	0,581	2,9802
22,44	8,2452	0,2485	0,4815	3,0277
22,46	8,3899	0,2547	0,3868	3,0497
22,48	8,517	0,2672	0,2057	3,161
22,5	8,7154	0,271	0,1669	3,1347
22,52	8,8606	0,2788	0,0944	3,1555
22,54	8,8812	0,2786	-0,0563	3,136
22,56	8,9308	0,2759	-0,0517	3,0892
22,58	8,8148	0,2711	-0,0768	3,075
22,6	8,7583	0,2719	-0,0743	3,1056
22,62	8,5683	0,2746	-0,0695	3,202
22,64	8,5003	0,289	-0,0703	3,3983
22,66	8,3466	0,3051	-0,0636	3,6585
22,68	8,2453	0,3049	-0,0667	3,698
22,7	8,2373	0,301	-0,0662	3,6543
22,72	8,2872	0,3142	-0,066	3,7915
22,74	8,4065	0,3126	-0,0583	3,7178
22,76	8,3687	0,298	-0,0481	3,5533
22,78	8,4289	0,3036	-0,0392	3,6062
22,8	8,5757	0,3179	-0,046	3,7271
22,82	8,5724	0,309	-0,0362	3,6098
22,84	8,3429	0,3001	-0,016	3,5977
22,86	8,3625	0,2788	-0,0184	3,3476
22,88	8,3361	0,2538	-0,0039	3,0479
22,9	8,2655	0,2404	0,0243	2,8907
22,92	8,1546	0,2442	0,0423	2,9906
22,94	8,0252	0,2438	0,0774	3,014
22,96	8,0604	0,244	0,2857	3,0647
22,98	8,3892	0,2534	0,5674	3,1853
23	8,7139	0,2636	0,6758	3,0735
23,02	8,7267	0,2643	0,6757	3,0282
23,04	8,6032	0,2394	0,6805	2,7827
23,06	8,4991	0,2347	0,7059	2,7612
23,08	8,5536	0,2494	0,795	2,9163
23,1	8,7343	0,2635	0,8544	3,0167
23,12	8,7573	0,277	0,7685	3,1652
23,14	8,9781	0,2947	0,3453	3,2821
23,16	9,2777	0,3155	0,005	3,4009
23,18	9,0805	0,3254	0,0666	3,5791
23,2	8,7757	0,3304	0,1142	3,7616
23,22	8,5494	0,3016	0,3298	3,5006
23,24	8,319	0,2728	0,5417	3,2396
23,26	8,1321	0,2717	0,8176	3,3251
23,28	7,9963	0,259	1,0537	3,2391
23,3	7,9053	0,238	1,2144	3,0132
23,32	7,9415	0,2361	0,9427	3,004
23,34	8,0499	0,2512	0,671	3,1963
23,36	8,0265	0,2403	0,7694	2,9764
23,38	7,7401	0,2463	0,7112	3,1486
23,4	7,5515	0,2463	0,6237	3,2614
23,42	7,5901	0,2416	0,6174	3,1825
23,44	7,526	0,2522	0,938	3,3517
23,46	7,6038	0,2568	0,9698	3,3777
23,48	8,1938	0,2557	0,8753	3,1217
23,5	8,3892	0,2772	0,8293	3,3088
23,52	8,4179	0,2579	0,8093	3,0673
23,54	8,4534	0,2594	0,6334	3,0679
23,56	8,1574	0,2571	0,914	3,1459
23,58	7,9038	0,2548	0,9073	3,2227
23,6	7,6766	0,2472	1,0905	3,2202
23,62	7,603	0,2299	0,9157	3,0237
23,64	7,4594	0,2155	1,0123	2,889
23,66	7,3094	0,2252	1,0197	3,0802
23,68	7,0857	0,2059	1,0614	2,9035
23,7	6,8206	0,2005	1,1641	2,9216
23,72	6,7197	0,1981	1,0319	2,9378
23,74	6,6377	0,1956	0,93	2,9539
23,76	6,2978	0,2044	1,0593	3,226
23,78	6,0869	0,1981	0,8726	3,2536
23,8	5,9705	0,188	0,9038	3,1502
23,82	5,811	0,1774	0,9668	2,9995
23,84	5,6621	0,1692	1,0299	2,86
23,86	5,4956	0,1649	1,2584	3,0008
23,88	5,3113	0,1583	1,3146	2,9766
23,9	5,1697	0,1478	1,3785	2,8488
23,92	5,0458	0,1438	1,3492	2,8434
23,94	4,92	0,1343	1,2862	2,7214
23,96	4,7137	0,1296	1,2694	2,7318
23,98	4,4754	0,1211	1,2234	2,6871
24	4,2229	0,1145	1,2244	2,6966
24,02	4,0182	0,1087	1,3039	2,6898
24,04	3,8507	0,1064	1,2863	2,7609
24,06	3,7416	0,0965	1,2852	2,569
24,08	3,5791	0,093	1,2693	2,5965
24,1	3,5091	0,0903	1,2826	2,5708
24,12	3,4011	0,0901	1,2935	2,6445
24,14	3,2804	0,0853	1,3464	2,5865
24,16	3,2065	0,0841	1,3237	2,6278
24,18	3,1796	0,0792	1,34	2,491
24,2	3,1523	0,0743	1,3682	2,3541
24,22	3,147	0,0768	1,3676	2,4414
24,24	3,1678	0,0867	1,3211	2,7361
24,26	3,2054	0,0909	1,2629	2,8364
24,28	3,2491	0,0952	1,1804	2,9704
24,3	3,2954	0,0993	1,098	3,0975
24,32	3,3418	0,1013	1,0471	3,034
24,34	3,2512	0,0957	1,055	2,9446
24,36	3,1624	0,0872	1,0247	2,7541
24,38	3,0616	0,0849	1,0359	2,763
24,4	2,9888	0,0914	1,0769	3,0574
24,42	2,9953	0,0946	1,1275	3,1622
24,44	3,0133	0,0859	1,0918	2,8502
24,46	2,953	0,0829	0,9841	2,798
24,48	2,8295	0,0793	0,9391	2,7891
24,5	2,6761	0,0783	0,9284	2,9074
24,52	2,4733	0,0699	1,1573	2,8203
24,54	2,3968	0,065	1,1849	2,7077
24,56	2,3333	0,065	1,2207	2,7845
24,58	2,3628	0,0699	1,2378	2,9594
24,6	2,3823	0,0686	1,2559	2,8811
24,62	2,3883	0,0661	1,1328	2,7754
24,64	2,3719	0,0623	1,0752	2,6271
24,66	2,2802	0,056	1,0781	2,4738
24,68	2,1404	0,0497	1,1441	2,3205
24,7	2,0019	0,0493	1,1715	2,4619
24,72	1,9307	0,0493	1,1654	2,5536
24,74	1,8906	0,0502	1,1505	2,6538
24,76	1,9407	0,052	1,1002	2,7571
24,78	2,0127	0,0512	1,0499	2,7151
24,8	2,0362	0,0506	1,0442	2,4896
24,82	1,9545	0,0489	1,0422	2,5104
24,84	1,8719	0,0479	1,0382	2,5194
24,86	1,7965	0,0468	1,094	2,6135
24,88	1,7587	0,0446	1,1351	2,5402
24,9	1,7414	0,0451	1,1704	2,5854
24,92	1,7619	0,0453	1,1767	2,586
24,94	1,802	0,0444	1,1557	2,4665
24,96	1,7805	0,042	1,1569	2,3562
24,98	1,7533	0,0383	1,0993	2,1886
25	1,6903	0,0357	1,0643	2,119
25,02	1,6067	0,0345	1,0796	2,1507
25,04	1,5515	0,0356	1,0699	2,2968
25,06	1,4963	0,0348	1,0978	2,3247
25,08	1,4808	0,0352	1,0622	2,3746
25,1	1,4704	0,036	1,0209	2,4534
25,12	1,4647	0,0344	0,9797	2,3464
25,14	1,4683	0,0329	1,0368	2,2438
25,16	1,5004	0,0354	1,0391	2,3911
25,18	1,5588	0,0441	1,0729	2,8811
25,2	1,6788	0,0476	1,0908	2,8225
25,22	1,8298	0,0377	0,9842	2,1269
25,24	1,9531	0,0353	0,8673	1,7975
25,26	2,0773	0,0492	0,8654	2,3616
25,28	2,1561	0,0758	1,0353	3,4966
25,3	2,5358	0,1018	1,1356	3,9459
25,32	3,5074	0,1221	0,811	3,4196
25,34	4,7409	0,144	0,3142	3,3726
25,36	5,78	0,1698	0,0815	3,1341
25,38	6,6163	0,195	0,0718	3,089
25,4	7,5924	0,2108	-0,0183	2,9076
25,42	8,4312	0,211	-0,0681	2,549
25,44	8,9089	0,2074	-0,071	2,3396
25,46	9,2258	0,2162	-0,0629	2,3525
25,48	9,8678	0,2312	-0,0445	2,3588
25,5	11,4372	0,2445	-0,0445	2,1702
25,52	14,5345	0,2439	-0,0622	1,7536
25,54	18,3603	0,1897	-0,0685	1,2047
25,56	21,9465	0,1342	-0,0726	0,6537
25,58	24,6906	0,1188	-0,075	0,4798
25,6	26,3258	0,1238	-0,0727	0,475
25,62	26,9094	0,132	-0,0691	0,4907
25,64	26,2448	0,1501	-0,0393	0,558
25,66	25,1103	0,1635	-0,0074	0,6077
25,68	24,2027	0,1748	0,0205	0,7206
25,7	22,9974	0,1799	0,0261	0,7819
25,72	22,3962	0,1749	0,0288	0,7901
25,74	21,234	0,1668	0,0328	0,7884
25,76	20,1858	0,1588	0,0412	0,7867
25,78	19,0272	0,1697	0,0488	0,8915
25,8	17,5504	0,207	0,0507	1,1791
25,82	15,6116	0,2669	0,0277	1,6262
25,84	13,5974	0,3211	0,0016	1,9563
25,86	11,5833	0,336	-0,0245	2,0472
25,88	9,4323	0,3052	-0,0404	2,9632
25,9	7,3513	0,2482	-0,0194	3,3751
25,92	5,8793	0,1999	0,0254	3,1193
25,94	4,5924	0,1567	0,0996	3,1453
25,96	3,8504	0,1078	0,3334	2,6594
25,98	3,5966	0,0905	0,3537	2,491
26	3,5825	0,0752	0,3946	2,0967
26,02	3,557	0,0977	0,5374	2,746
26,04	3,7107	0,15	0,7397	4,1709
26,06	4,8041	0,1946	0,7906	4,5747
26,08	6,9704	0,2563	0,5245	4,1265
26,1	9,7131	0,3092	0,0402	3,5234
26,12	11,0239	0,3332	-0,0174	3,0936
26,14	11,4308	0,4062	0,0304	3,5627
26,16	11,5486	0,4848	0,1796	4,1848
26,18	11,0264	0,5245	0,3849	4,6795
26,2	10,5303	0,5178	0,6197	4,8655
26,22	10,6255	0,4927	0,1447	4,6504
26,24	10,3383	0,4684	0,2545	4,4761
26,26	9,781	0,4587	0,6598	4,6327
26,28	9,4718	0,4365	0,971	4,6018
26,3	9,4196	0,4235	1,107	4,4863
26,32	9,5414	0,4192	1,1049	4,3791
26,34	9,7593	0,4149	1,0268	4,2718
26,36	9,856	0,4296	1,1367	4,3651
26,38	9,9052	0,4598	1,1131	4,6497
26,4	10,0655	0,4734	0,9687	4,7289
26,42	10,3664	0,4963	0,8794	4,9026
26,44	10,704	0,5132	0,7901	5,0695
26,46	10,9833	0,5263	0,7954	4,818
26,48	11,1389	0,5356	0,7508	4,8256
26,5	11,1617	0,5366	0,7155	4,804
26,52	11,0545	0,537	0,5258	4,8449
26,54	10,9294	0,5305	0,465	4,8344
26,56	10,6384	0,5205	0,5532	4,8425
26,58	10,3598	0,5226	0,4414	4,9978
26,6	9,929	0,5147	0,2243	5,1205
26,62	9,2383	0,4817	0,1544	5,2004
26,64	8,4021	0,4331	0,0898	5,092
26,66	7,6089	0,3844	0,02	4,9836
26,68	6,9475	0,357	-0,0358	5,0962
26,7	6,3527	0,3465	-0,0469	5,4612
26,72	5,6577	0,3327	-0,0019	5,8911
26,74	5,3653	0,3249	0,1325	5,7704
26,76	5,0881	0,3241	0,2668	5,7575
26,78	4,8226	0,2999	0,4	6,1322
26,8	4,5376	0,315	0,4841	6,8495
26,82	4,5385	0,3588	0,6328	7,9505
26,84	4,8898	0,3811	0,6276	7,9658
26,86	5,3181	0,3741	0,7083	7,1971
26,88	5,7666	0,3629	0,6138	6,4191
26,9	6,1527	0,3339	0,5243	5,4646
26,92	6,0308	0,2923	0,7465	4,808
26,94	5,8816	0,2903	0,885	4,899
26,96	5,8658	0,278	1,083	4,7623
26,98	6,1271	0,273	1,2557	4,5302
27	6,546	0,2817	1,2834	4,4031
27,02	6,9199	0,2911	1,1479	4,2725
27,04	7,0583	0,2853	1,0358	4,0442
27,06	6,9852	0,2922	1,0232	4,1779
27,08	6,9284	0,2983	0,9305	4,2823
27,1	6,6898	0,2836	0,9834	4,188
27,12	6,3108	0,2579	1,1054	4,0002
27,14	5,9598	0,2624	1,1429	4,3399
27,16	5,6485	0,2681	1,3099	4,6727
27,18	5,4968	0,2879	1,534	5,2131
27,2	5,7247	0,2998	1,6709	5,2831
27,22	6,393	0,298	1,7766	4,807
27,24	7,3419	0,3113	1,7789	4,3567
27,26	8,5236	0,3569	1,7355	4,2301
27,28	10,2286	0,4011	1,6478	3,8666
27,3	12,5971	0,4232	0,6793	3,5641
27,32	15,7148	0,426	-0,0881	3,0966
27,34	16,4107	0,4287	-0,0766	2,6291
27,36	17,0057	0,4098	-0,0614	2,4075
27,38	19,0818	0,4128	-0,054	2,1558
27,4	22,6761	0	0	0
27,42	24,8004	0	0	0
27,44	26,5857	0	0	0
27,46	28,5892	0	0	0
27,48	30,9316	0	0	0
27,488	33,1867	0	0	0
